HEADER
Header Length,86
Export file version,2.0

Warning,Some of the samples in this profile were acquired more than 0.250 mm away from the intended location. Max. deviation per axis X=0.895 mm, Y=0.112 mm, Z=0.001 mm.

Export settings:
Normalise,Yes
For TPS,No
Smoothing level,None

Units:
length,[cm]
amperage,[pA]

Project:
Project,Pinpoint 3D MR Safe
Project run number,1
Project run note,

Irradiation unit:
Name,VCU MRIdian
Manufacturer,ViewRay
Model,MRIdian
Source-isocentre distance,90,[cm]

Thales:
Control unit UID,00-3B-00-43-4B-56-50-11-20-37-30-53
Electrometer UID,00-4E-00-36-58-4B-50-0D-20-34-34-41
Water phantom UID,4A-B3-52-04-00-00-00-0A

Field detector:
Serial number,200613
Manufacturer,PTW
Model,Pinpoint 3D MR Safe
Bias voltage,300,[V]

Reference detector:
Serial number,XMC213192
Manufacturer,Standard Imaging
Model,A28MR Ref
Bias voltage,-300,[V]

Zeroing offsets:
Field detector,-0.834,[pA]
Reference detector,-0.907,[pA]

Profile settings:
Measurement mode,Continuous
Creation time,2023-01-08T17:12:20.1516191-05:00
SSD,85,[cm]
Gantry angle,0,[°]
Field size crossline,0.83,[cm]
Field size inline,0.83,[cm]
Beam quality,6,[MV]
Flattening Filter,FFF
Time to wait prior to sampling,0,[s]

Profile:
Profile type,PDD
Profile status,Completed successfully
Start X,0,[cm]
Start Y,0,[cm]
Start Z,-21,[cm]
Stop X,0,[cm]
Stop Y,0,[cm]
Stop Z,0.1,[cm]
Couch tilt x,0.06,[°]
Couch tilt y,0.00,[°]

Region count,1

Region 1 Start,0,[µm]
Region 1 Stop,211000,[µm]
Step size,1000,[µm]
Speed,320,[µm/s]
Integration time,3125,[ms]

Analysis result:
Analysis method,PDD standard
Calculated D10,52.400,[%]
Calculated D20,26.429,[%]
DMax,1.099346,[cm]
Normalisation factor,0.604828,


MEASUREMENT DATA

X [cm],Y [cm],Z [cm],Normalised dose [%],
0.0446,0.0056,-20.9501,-24.781,
0.0895,0.0112,-20.85,-24.883,
0.0892,0.0111,-20.75,-25.057,
0.0886,0.011,-20.65,-25.266,
0.0881,0.0108,-20.55,-25.448,
0.0875,0.0107,-20.45,-25.612,
0.0869,0.0106,-20.35,-25.793,
0.0864,0.0104,-20.25,-26.016,
0.0858,0.0103,-20.15,-26.128,
0.0853,0.0102,-20.05,-26.363,
0.0847,0.0101,-19.95,-26.495,
0.0841,0.0099,-19.85,-26.632,
0.0836,0.0098,-19.75,-26.911,
0.083,0.0097,-19.65,-26.979,
0.0825,0.0095,-19.55,-27.159,
0.0819,0.0094,-19.45,-27.350,
0.0813,0.0093,-19.35,-27.521,
0.0808,0.0092,-19.25,-27.750,
0.0802,0.009,-19.15,-27.949,
0.0796,0.0089,-19.05,-28.178,
0.0791,0.0088,-18.95,-28.312,
0.0785,0.0087,-18.85,-28.515,
0.078,0.0085,-18.75,-28.607,
0.0774,0.0084,-18.65,-28.869,
0.0768,0.0083,-18.55,-29.044,
0.0763,0.0081,-18.45,-29.210,
0.0757,0.008,-18.35,-29.472,
0.0752,0.0079,-18.2501,-29.635,
0.0746,0.0078,-18.15,-29.888,
0.074,0.0076,-18.05,-30.065,
0.0735,0.0075,-17.95,-30.265,
0.0729,0.0074,-17.8501,-30.483,
0.0724,0.0072,-17.75,-30.636,
0.0718,0.0071,-17.65,-30.828,
0.0712,0.007,-17.55,-31.101,
0.0707,0.0069,-17.45,-31.284,
0.0701,0.0067,-17.35,-31.455,
0.0696,0.0066,-17.25,-31.728,
0.069,0.0065,-17.15,-31.924,
0.0684,0.0063,-17.05,-32.171,
0.0679,0.0062,-16.95,-32.364,
0.0673,0.0061,-16.85,-32.614,
0.0668,0.006,-16.75,-32.834,
0.0663,0.0059,-16.65,-33.029,
0.0658,0.0058,-16.55,-33.254,
0.0653,0.0058,-16.45,-33.460,
0.0648,0.0058,-16.35,-33.715,
0.0644,0.0058,-16.25,-33.915,
0.0639,0.0058,-16.15,-34.139,
0.0634,0.0058,-16.05,-34.341,
0.0629,0.0058,-15.95,-34.614,
0.0625,0.0057,-15.85,-34.849,
0.062,0.0057,-15.75,-35.078,
0.0615,0.0057,-15.65,-35.326,
0.0611,0.0057,-15.5501,-35.530,
0.0606,0.0057,-15.45,-35.760,
0.0601,0.0057,-15.35,-36.039,
0.0596,0.0057,-15.25,-36.234,
0.0592,0.0057,-15.15,-36.476,
0.0587,0.0056,-15.05,-36.755,
0.0582,0.0056,-14.95,-36.975,
0.0577,0.0056,-14.85,-37.182,
0.0573,0.0056,-14.7501,-37.478,
0.0568,0.0056,-14.6501,-37.678,
0.0563,0.0056,-14.55,-37.956,
0.0558,0.0056,-14.45,-38.274,
0.0554,0.0056,-14.35,-38.458,
0.0549,0.0055,-14.25,-38.732,
0.0544,0.0055,-14.15,-39.049,
0.0539,0.0055,-14.05,-39.308,
0.0535,0.0055,-13.95,-39.568,
0.053,0.0055,-13.85,-39.878,
0.0525,0.0055,-13.75,-40.249,
0.0521,0.0055,-13.65,-40.767,
0.0516,0.0054,-13.55,-41.024,
0.0511,0.0054,-13.45,-41.332,
0.0506,0.0054,-13.35,-41.633,
0.0502,0.0054,-13.25,-41.976,
0.0497,0.0054,-13.15,-42.281,
0.0492,0.0054,-13.05,-42.578,
0.0487,0.0054,-12.95,-42.829,
0.0483,0.0054,-12.85,-43.052,
0.0478,0.0053,-12.75,-43.369,
0.0473,0.0053,-12.65,-43.707,
0.0468,0.0053,-12.55,-44.060,
0.0464,0.0053,-12.45,-44.279,
0.0459,0.0053,-12.35,-44.609,
0.0454,0.0053,-12.25,-44.870,
0.045,0.0053,-12.15,-45.289,
0.0445,0.0052,-12.05,-45.527,
0.044,0.0052,-11.95,-45.857,
0.0435,0.0052,-11.85,-46.117,
0.0431,0.0052,-11.75,-46.402,
0.0426,0.0052,-11.65,-46.778,
0.0421,0.0052,-11.55,-47.064,
0.0416,0.0052,-11.45,-47.416,
0.0412,0.0052,-11.35,-47.737,
0.0407,0.0051,-11.25,-48.055,
0.0402,0.0051,-11.15,-48.378,
0.0397,0.0051,-11.05,-48.744,
0.0393,0.0051,-10.95,-48.973,
0.0388,0.0051,-10.85,-49.323,
0.0383,0.0051,-10.75,-49.782,
0.0378,0.0051,-10.65,-50.104,
0.0375,0.005,-10.55,-50.447,
0.0371,0.005,-10.45,-50.765,
0.0367,0.005,-10.35,-51.131,
0.0364,0.0049,-10.25,-51.412,
0.036,0.0049,-10.1501,-51.918,
0.0356,0.0049,-10.05,-52.206,
0.0353,0.0048,-9.95,-52.593,
0.0349,0.0048,-9.85,-53.064,
0.0346,0.0047,-9.75,-53.497,
0.0342,0.0047,-9.65,-53.772,
0.0338,0.0047,-9.55,-54.292,
0.0335,0.0046,-9.4501,-54.680,
0.0331,0.0046,-9.35,-55.189,
0.0327,0.0046,-9.2501,-55.451,
0.0324,0.0045,-9.15,-55.940,
0.032,0.0045,-9.05,-56.393,
0.0317,0.0044,-8.95,-56.706,
0.0313,0.0044,-8.85,-57.172,
0.0309,0.0044,-8.75,-57.582,
0.0306,0.0043,-8.65,-58.135,
0.0302,0.0043,-8.5501,-58.516,
0.0298,0.0043,-8.45,-58.767,
0.0295,0.0042,-8.3501,-59.309,
0.0291,0.0042,-8.25,-59.602,
0.0288,0.0042,-8.15,-60.107,
0.0284,0.0041,-8.05,-60.577,
0.028,0.0041,-7.95,-61.006,
0.0277,0.004,-7.85,-61.360,
0.0273,0.004,-7.75,-61.884,
0.0269,0.004,-7.65,-62.309,
0.0266,0.0039,-7.55,-62.667,
0.0262,0.0039,-7.45,-63.273,
0.0258,0.0039,-7.35,-63.703,
0.0255,0.0038,-7.25,-64.199,
0.0251,0.0038,-7.15,-64.602,
0.0248,0.0038,-7.05,-65.075,
0.0244,0.0037,-6.95,-65.569,
0.024,0.0037,-6.85,-65.979,
0.0237,0.0036,-6.75,-66.509,
0.0233,0.0036,-6.65,-67.033,
0.0229,0.0036,-6.55,-67.500,
0.0226,0.0035,-6.45,-68.062,
0.0222,0.0035,-6.35,-68.526,
0.0219,0.0035,-6.25,-68.935,
0.0215,0.0034,-6.15,-69.580,
0.0211,0.0034,-6.05,-70.214,
0.0208,0.0034,-5.95,-70.772,
0.0204,0.0033,-5.85,-71.297,
0.02,0.0033,-5.75,-71.612,
0.0197,0.0032,-5.65,-72.210,
0.0193,0.0032,-5.55,-72.686,
0.019,0.0032,-5.45,-73.340,
0.0186,0.0031,-5.35,-73.770,
0.0182,0.0031,-5.25,-74.365,
0.0179,0.0031,-5.15,-74.842,
0.0175,0.003,-5.05,-75.526,
0.0171,0.003,-4.95,-75.986,
0.0168,0.003,-4.85,-76.727,
0.0164,0.0029,-4.75,-77.333,
0.0161,0.0029,-4.65,-77.797,
0.0157,0.0028,-4.55,-78.475,
0.0154,0.0028,-4.45,-79.151,
0.015,0.0027,-4.35,-79.664,
0.0147,0.0026,-4.25,-80.109,
0.0143,0.0026,-4.15,-80.762,
0.014,0.0025,-4.05,-81.444,
0.0136,0.0024,-3.95,-81.972,
0.0133,0.0024,-3.85,-82.485,
0.0129,0.0023,-3.75,-83.132,
0.0126,0.0023,-3.65,-83.999,
0.0122,0.0022,-3.55,-84.762,
0.0119,0.0021,-3.45,-85.370,
0.0115,0.0021,-3.35,-85.999,
0.0112,0.002,-3.25,-86.558,
0.0108,0.0019,-3.15,-87.147,
0.0105,0.0019,-3.05,-87.724,
0.0101,0.0018,-2.95,-88.447,
0.0098,0.0017,-2.85,-88.995,
0.0094,0.0017,-2.75,-89.596,
0.0091,0.0016,-2.65,-90.275,
0.0087,0.0015,-2.55,-91.199,
0.0084,0.0015,-2.45,-91.884,
0.008,0.0014,-2.35,-92.538,
0.0077,0.0014,-2.25,-93.143,
0.0073,0.0013,-2.15,-94.023,
0.007,0.0012,-2.05,-94.543,
0.0066,0.0012,-1.95,-95.109,
0.0063,0.0011,-1.85,-95.686,
0.006,0.001,-1.75,-96.616,
0.0056,0.001,-1.65,-97.169,
0.0053,0.0009,-1.55,-97.826,
0.0049,0.0008,-1.45,-98.416,
0.0046,0.0008,-1.35,-98.912,
0.0042,0.0007,-1.25,-99.421,
0.0039,0.0006,-1.15,-99.879,
0.0035,0.0006,-1.05,-99.879,
0.0032,0.0005,-0.95,-100.000,
0.0028,0.0005,-0.85,-99.419,
0.0025,0.0004,-0.75,-98.423,
0.0021,0.0003,-0.65,-97.166,
0.0018,0.0003,-0.55,-94.859,
0.0014,0.0002,-0.45,-91.538,
0.0011,0.0001,-0.35,-85.955,
0.0007,0.0001,-0.25,-77.788,
0.0004,0,-0.15,-65.580,
0,-0.0001,-0.05,-55.220,
-0.0003,-0.0001,0.05,-52.087,

Checksum:,AD18FC0E6B87978E05D3F3F0744E3BBED5E8D60C9193087CB6244E276DD02088