HEADER
Header Length,86
Export file version,2.0

Warning,Some of the samples in this profile were acquired more than 0.250 mm away from the intended location. Max. deviation per axis X=0.897 mm, Y=0.112 mm, Z=0.001 mm.

Export settings:
Normalise,Yes
For TPS,No
Smoothing level,None

Units:
length,[cm]
amperage,[pA]

Project:
Project,Pinpoint 3D MR Safe
Project run number,2
Project run note,

Irradiation unit:
Name,VCU MRIdian
Manufacturer,ViewRay
Model,MRIdian
Source-isocentre distance,90,[cm]

Thales:
Control unit UID,00-3B-00-43-4B-56-50-11-20-37-30-53
Electrometer UID,00-4E-00-36-58-4B-50-0D-20-34-34-41
Water phantom UID,4A-B3-52-04-00-00-00-0A

Field detector:
Serial number,200613
Manufacturer,PTW
Model,Pinpoint 3D MR Safe
Bias voltage,300,[V]

Reference detector:
Serial number,XMC213192
Manufacturer,Standard Imaging
Model,A28MR Ref
Bias voltage,-300,[V]

Zeroing offsets:
Field detector,-0.83,[pA]
Reference detector,-0.908,[pA]

Profile settings:
Measurement mode,Continuous
Creation time,2023-01-08T19:51:07.4814493-05:00
SSD,85,[cm]
Gantry angle,0,[°]
Field size crossline,24.07,[cm]
Field size inline,24.07,[cm]
Beam quality,6,[MV]
Flattening Filter,FFF
Time to wait prior to sampling,0,[s]

Profile:
Profile type,PDD
Profile status,Completed successfully
Start X,0,[cm]
Start Y,0,[cm]
Start Z,-21,[cm]
Stop X,0,[cm]
Stop Y,0,[cm]
Stop Z,0.1,[cm]
Couch tilt x,0.06,[°]
Couch tilt y,0.00,[°]

Region count,1

Region 1 Start,0,[µm]
Region 1 Stop,211000,[µm]
Step size,1000,[µm]
Speed,320,[µm/s]
Integration time,3125,[ms]

Analysis result:
Analysis method,PDD standard
Calculated D10,66.717,[%]
Calculated D20,37.786,[%]
DMax,1.501915,[cm]
Normalisation factor,0.410673,


MEASUREMENT DATA

X [cm],Y [cm],Z [cm],Normalised dose [%],
0.0457,0.0053,-20.9501,-35.999,
0.0897,0.0112,-20.85,-36.112,
0.0892,0.0111,-20.75,-36.381,
0.0886,0.011,-20.65,-36.516,
0.0881,0.0108,-20.55,-36.697,
0.0875,0.0107,-20.45,-36.947,
0.0869,0.0106,-20.35,-37.109,
0.0864,0.0104,-20.25,-37.342,
0.0858,0.0103,-20.15,-37.604,
0.0853,0.0102,-20.05,-37.717,
0.0847,0.0101,-19.95,-37.855,
0.0841,0.0099,-19.85,-38.123,
0.0836,0.0098,-19.75,-38.386,
0.083,0.0097,-19.65,-38.500,
0.0825,0.0095,-19.55,-38.757,
0.0819,0.0094,-19.45,-38.996,
0.0813,0.0093,-19.35,-39.230,
0.0808,0.0092,-19.25,-39.450,
0.0802,0.009,-19.15,-39.666,
0.0796,0.0089,-19.05,-39.894,
0.0791,0.0088,-18.95,-40.197,
0.0785,0.0087,-18.85,-40.422,
0.078,0.0085,-18.75,-40.648,
0.0774,0.0084,-18.65,-40.836,
0.0768,0.0083,-18.55,-41.083,
0.0763,0.0081,-18.45,-41.417,
0.0757,0.008,-18.35,-41.659,
0.0752,0.0079,-18.2501,-41.854,
0.0746,0.0078,-18.15,-42.099,
0.074,0.0076,-18.05,-42.367,
0.0735,0.0075,-17.95,-42.545,
0.0729,0.0074,-17.8501,-42.799,
0.0724,0.0072,-17.75,-43.058,
0.0718,0.0071,-17.65,-43.408,
0.0712,0.007,-17.55,-43.560,
0.0707,0.0069,-17.45,-43.817,
0.0701,0.0067,-17.35,-44.090,
0.0696,0.0066,-17.25,-44.347,
0.069,0.0065,-17.15,-44.563,
0.0684,0.0063,-17.05,-44.827,
0.0679,0.0062,-16.95,-45.065,
0.0673,0.0061,-16.85,-45.365,
0.0668,0.006,-16.75,-45.685,
0.0663,0.0059,-16.65,-45.812,
0.0658,0.0058,-16.55,-46.150,
0.0653,0.0058,-16.45,-46.385,
0.0648,0.0058,-16.35,-46.678,
0.0644,0.0058,-16.25,-47.051,
0.0639,0.0058,-16.15,-47.302,
0.0634,0.0058,-16.05,-47.478,
0.0629,0.0058,-15.95,-47.797,
0.0625,0.0057,-15.85,-48.068,
0.062,0.0057,-15.75,-48.422,
0.0615,0.0057,-15.65,-48.628,
0.0611,0.0057,-15.5501,-48.999,
0.0606,0.0057,-15.45,-49.181,
0.0601,0.0057,-15.35,-49.499,
0.0596,0.0057,-15.25,-49.755,
0.0592,0.0057,-15.15,-49.973,
0.0587,0.0056,-15.05,-50.264,
0.0582,0.0056,-14.95,-50.568,
0.0577,0.0056,-14.85,-50.814,
0.0573,0.0056,-14.7501,-51.170,
0.0568,0.0056,-14.6501,-51.534,
0.0563,0.0056,-14.55,-51.772,
0.0558,0.0056,-14.45,-52.031,
0.0554,0.0056,-14.35,-52.465,
0.0549,0.0055,-14.25,-52.764,
0.0544,0.0055,-14.15,-52.970,
0.0539,0.0055,-14.05,-53.234,
0.0535,0.0055,-13.95,-53.562,
0.053,0.0055,-13.85,-53.872,
0.0525,0.0055,-13.75,-54.246,
0.0521,0.0055,-13.65,-54.533,
0.0516,0.0054,-13.55,-54.870,
0.0511,0.0054,-13.45,-55.115,
0.0506,0.0054,-13.35,-55.446,
0.0502,0.0054,-13.25,-55.809,
0.0497,0.0054,-13.15,-56.028,
0.0492,0.0054,-13.05,-56.331,
0.0487,0.0054,-12.95,-56.801,
0.0483,0.0054,-12.85,-57.030,
0.0478,0.0053,-12.75,-57.360,
0.0473,0.0053,-12.65,-57.639,
0.0468,0.0053,-12.55,-57.986,
0.0464,0.0053,-12.45,-58.342,
0.0459,0.0053,-12.35,-58.605,
0.0454,0.0053,-12.25,-58.856,
0.045,0.0053,-12.15,-59.243,
0.0445,0.0052,-12.05,-59.641,
0.044,0.0052,-11.95,-59.899,
0.0435,0.0052,-11.85,-60.223,
0.0431,0.0052,-11.75,-60.486,
0.0426,0.0052,-11.65,-60.906,
0.0421,0.0052,-11.55,-61.270,
0.0416,0.0052,-11.45,-61.618,
0.0412,0.0052,-11.35,-61.839,
0.0407,0.0051,-11.25,-62.297,
0.0402,0.0051,-11.15,-62.613,
0.0397,0.0051,-11.05,-62.894,
0.0393,0.0051,-10.95,-63.252,
0.0388,0.0051,-10.85,-63.595,
0.0383,0.0051,-10.75,-63.983,
0.0378,0.0051,-10.65,-64.360,
0.0375,0.005,-10.55,-64.645,
0.0371,0.005,-10.45,-65.087,
0.0367,0.005,-10.35,-65.530,
0.0364,0.0049,-10.25,-65.799,
0.036,0.0049,-10.1501,-66.144,
0.0356,0.0049,-10.05,-66.627,
0.0353,0.0048,-9.95,-66.808,
0.0349,0.0048,-9.85,-67.189,
0.0346,0.0047,-9.75,-67.578,
0.0342,0.0047,-9.65,-67.904,
0.0338,0.0047,-9.55,-68.214,
0.0335,0.0046,-9.4501,-68.732,
0.0331,0.0046,-9.35,-69.038,
0.0327,0.0046,-9.2501,-69.434,
0.0324,0.0045,-9.15,-69.868,
0.032,0.0045,-9.05,-70.236,
0.0317,0.0044,-8.95,-70.474,
0.0313,0.0044,-8.85,-70.961,
0.0309,0.0044,-8.75,-71.338,
0.0306,0.0043,-8.65,-71.711,
0.0302,0.0043,-8.5501,-72.153,
0.0298,0.0043,-8.45,-72.432,
0.0295,0.0042,-8.3501,-72.893,
0.0291,0.0042,-8.25,-73.291,
0.0288,0.0042,-8.15,-73.626,
0.0284,0.0041,-8.05,-74.060,
0.028,0.0041,-7.95,-74.406,
0.0277,0.004,-7.85,-74.829,
0.0273,0.004,-7.75,-75.127,
0.0269,0.004,-7.65,-75.448,
0.0266,0.0039,-7.55,-75.917,
0.0262,0.0039,-7.45,-76.311,
0.0258,0.0039,-7.35,-76.758,
0.0255,0.0038,-7.25,-77.082,
0.0251,0.0038,-7.15,-77.569,
0.0248,0.0038,-7.05,-78.040,
0.0244,0.0037,-6.95,-78.390,
0.024,0.0037,-6.85,-78.738,
0.0237,0.0036,-6.75,-79.250,
0.0233,0.0036,-6.65,-79.552,
0.0229,0.0036,-6.55,-79.912,
0.0226,0.0035,-6.45,-80.390,
0.0222,0.0035,-6.35,-80.864,
0.0219,0.0035,-6.25,-81.189,
0.0215,0.0034,-6.15,-81.627,
0.0211,0.0034,-6.05,-82.026,
0.0208,0.0034,-5.95,-82.588,
0.0204,0.0033,-5.85,-82.831,
0.02,0.0033,-5.75,-83.290,
0.0197,0.0032,-5.65,-83.655,
0.0193,0.0032,-5.55,-84.058,
0.019,0.0032,-5.45,-84.504,
0.0186,0.0031,-5.35,-84.951,
0.0182,0.0031,-5.25,-85.386,
0.0179,0.0031,-5.15,-85.786,
0.0175,0.003,-5.05,-86.245,
0.0171,0.003,-4.95,-86.617,
0.0168,0.003,-4.85,-87.091,
0.0164,0.0029,-4.75,-87.554,
0.0161,0.0029,-4.65,-87.879,
0.0157,0.0028,-4.55,-88.379,
0.0154,0.0028,-4.45,-88.824,
0.015,0.0027,-4.35,-89.140,
0.0147,0.0026,-4.25,-89.568,
0.0143,0.0026,-4.15,-89.967,
0.014,0.0025,-4.05,-90.466,
0.0136,0.0024,-3.95,-90.910,
0.0133,0.0024,-3.85,-91.232,
0.0129,0.0023,-3.75,-91.665,
0.0126,0.0023,-3.65,-92.142,
0.0122,0.0022,-3.55,-92.519,
0.0119,0.0021,-3.45,-93.084,
0.0115,0.0021,-3.35,-93.448,
0.0112,0.002,-3.25,-93.937,
0.0108,0.0019,-3.15,-94.266,
0.0105,0.0019,-3.05,-94.647,
0.0101,0.0018,-2.95,-95.127,
0.0098,0.0017,-2.85,-95.529,
0.0094,0.0017,-2.75,-95.909,
0.0091,0.0016,-2.65,-96.280,
0.0087,0.0015,-2.55,-96.843,
0.0084,0.0015,-2.45,-97.247,
0.008,0.0014,-2.35,-97.596,
0.0077,0.0014,-2.25,-98.080,
0.0073,0.0013,-2.15,-98.421,
0.007,0.0012,-2.05,-98.816,
0.0066,0.0012,-1.95,-99.113,
0.0063,0.0011,-1.85,-99.554,
0.006,0.001,-1.75,-99.736,
0.0056,0.001,-1.65,-99.981,
0.0053,0.0009,-1.55,-100.000,
0.0049,0.0008,-1.45,-99.842,
0.0046,0.0008,-1.35,-99.941,
0.0042,0.0007,-1.25,-99.769,
0.0039,0.0006,-1.15,-99.003,
0.0035,0.0006,-1.05,-98.200,
0.0032,0.0005,-0.95,-97.107,
0.0028,0.0005,-0.85,-95.682,
0.0025,0.0004,-0.75,-93.482,
0.0021,0.0003,-0.65,-90.616,
0.0018,0.0003,-0.55,-86.875,
0.0014,0.0002,-0.45,-81.788,
0.0011,0.0001,-0.35,-74.920,
0.0007,0.0001,-0.25,-65.679,
0.0004,0,-0.15,-54.243,
0,-0.0001,-0.05,-48.481,
-0.0003,-0.0001,0.05,-46.598,

Checksum:,7F93474264DDC5AC7A9639F6714796724BB6B08421F2FF1422F38102C168A150