HEADER
Header Length,87
Export file version,2.0


Export settings:
Normalise,Yes
For TPS,No
Smoothing level,None

Units:
length,[cm]
amperage,[pA]

Project:
Project,A28MR Field Detector SN XMC213190
Project run number,4
Project run note,

Irradiation unit:
Name,VCU MRIdian
Manufacturer,ViewRay
Model,MRIdian
Source-isocentre distance,90,[cm]

Thales:
Control unit UID,00-3B-00-43-4B-56-50-11-20-37-30-53
Electrometer UID,00-4E-00-36-58-4B-50-0D-20-34-34-41
Water phantom UID,4A-B3-52-04-00-00-00-0A

Field detector:
Serial number,XMC213190
Manufacturer,Standard Imaging
Model,A28MR Field
Bias voltage,-300,[V]

Reference detector:
Serial number,XMC213192
Manufacturer,Standard Imaging
Model,A28MR Ref
Bias voltage,-300,[V]

Zeroing offsets:
Field detector,-0.831,[pA]
Reference detector,-0.88,[pA]

Profile settings:
Measurement mode,Continuous
Creation time,2022-12-17T15:13:03.4000175-05:00
SSD,85,[cm]
Gantry angle,0,[°]
Field size crossline,9.96,[cm]
Field size inline,9.96,[cm]
Beam quality,6,[MV]
Flattening Filter,FFF
Time to wait prior to sampling,0,[s]

Profile:
Profile type,Inline
Profile status,Completed successfully
Start X,0,[cm]
Start Y,-6,[cm]
Start Z,-10,[cm]
Stop X,0,[cm]
Stop Y,6,[cm]
Stop Z,-10,[cm]
Couch tilt x,0.06,[°]
Couch tilt y,-0.02,[°]

Region count,1

Region 1 Start,0,[µm]
Region 1 Stop,120000,[µm]
Step size,1000,[µm]
Speed,1050,[µm/s]
Integration time,953,[ms]

Analysis result:
Analysis method,Max value
Calculated centre,-0.034184,[cm]
Calculated field width,10.606706,[cm]
Calculated penumbra left,1.044945,[cm]
Calculated penumbra right,1.028702,[cm]
Calculated symmetry,0.980,[%]
Normalisation factor,0.028301,


MEASUREMENT DATA

X [cm],Y [cm],Z [cm],Normalised dose [%],
-0.0003,-5.9499,-9.9979,13.630,
-0.0003,-5.8496,-9.9956,16.356,
0.0002,-5.7496,-9.9955,20.564,
0.0003,-5.6496,-9.9954,26.137,
0.0003,-5.5495,-9.9953,33.329,
0.0004,-5.4497,-9.9953,41.086,
0.0004,-5.3498,-9.9954,49.070,
0.0006,-5.2496,-9.9955,56.668,
0.0007,-5.1497,-9.9955,63.591,
0.0007,-5.0498,-9.9956,69.198,
0.0006,-4.9496,-9.9957,73.405,
0.0006,-4.8497,-9.9957,77.220,
0.0006,-4.7498,-9.9958,79.346,
0.0006,-4.6496,-9.9959,81.410,
0.0006,-4.5497,-9.9959,83.325,
0.0005,-4.4498,-9.996,84.852,
0.0007,-4.3496,-9.9961,85.271,
0.0008,-4.2497,-9.9961,86.114,
0.0008,-4.1499,-9.9962,87.423,
0.0008,-4.0497,-9.9963,87.688,
0.0007,-3.9498,-9.9963,88.341,
0.0007,-3.8499,-9.9964,89.269,
0.0007,-3.7497,-9.9965,89.643,
0.0009,-3.6498,-9.9965,89.537,
0.001,-3.5499,-9.9966,90.654,
0.0009,-3.4497,-9.9967,90.861,
0.0009,-3.3498,-9.9967,91.994,
0.0009,-3.2499,-9.9968,91.661,
0.0011,-3.1497,-9.9969,92.557,
0.0012,-3.0498,-9.9969,92.664,
0.0012,-2.9499,-9.997,92.810,
0.0013,-2.8498,-9.9971,93.777,
0.0015,-2.7496,-9.9971,93.958,
0.0015,-2.6497,-9.9972,94.362,
0.0015,-2.5498,-9.9973,94.888,
0.0015,-2.4496,-9.9973,94.925,
0.0014,-2.3497,-9.9974,95.600,
0.0014,-2.2498,-9.9975,95.622,
0.0012,-2.1496,-9.9975,96.203,
0.001,-2.0497,-9.9976,96.065,
0.0012,-1.9498,-9.9976,96.791,
0.0013,-1.8496,-9.9977,96.873,
0.0013,-1.7497,-9.9978,96.734,
0.0013,-1.6498,-9.9978,97.479,
0.0013,-1.5496,-9.9979,97.556,
0.0013,-1.4497,-9.998,97.760,
0.0012,-1.3499,-9.998,98.415,
0.0014,-1.2497,-9.9981,98.357,
0.0015,-1.1498,-9.9982,98.431,
0.0015,-1.0499,-9.9982,98.742,
0.0015,-0.9497,-9.9983,98.650,
0.0014,-0.8498,-9.9984,98.831,
0.0016,-0.7498,-9.9984,99.156,
0.0017,-0.6496,-9.9985,99.123,
0.0017,-0.5497,-9.9986,99.071,
0.0015,-0.4498,-9.9986,98.966,
0.0013,-0.3496,-9.9987,99.523,
0.0013,-0.2497,-9.9988,99.199,
0.0013,-0.1499,-9.9988,100.000,
0.0011,-0.0497,-9.9989,99.506,
0.001,0.0502,-9.999,99.652,
0.0009,0.1501,-9.999,99.920,
0.0009,0.2503,-9.9991,99.675,
0.0009,0.3502,-9.9992,99.587,
0.0011,0.4501,-9.9992,99.363,
0.0012,0.5503,-9.9993,99.553,
0.0012,0.6502,-9.9994,98.978,
0.0011,0.7501,-9.9994,98.820,
0.0011,0.8503,-9.9995,98.967,
0.0009,0.9502,-9.9996,98.706,
0.0008,1.0501,-9.9996,98.386,
0.0008,1.1502,-9.9997,98.032,
0.0009,1.2504,-9.9998,97.800,
0.001,1.3503,-9.9998,97.790,
0.001,1.4502,-9.9999,98.088,
0.001,1.5504,-10,97.811,
0.0008,1.6503,-10,96.864,
0.0006,1.7502,-10.0001,97.104,
0.0006,1.8504,-10.0002,96.492,
0.0006,1.9503,-10.0002,96.458,
0.0006,2.0502,-10.0003,96.330,
0.0006,2.1504,-10.0004,95.734,
0.0005,2.2503,-10.0004,96.033,
0.0005,2.3502,-10.0005,95.955,
0.0005,2.4504,-10.0006,94.930,
0.0005,2.5503,-10.0006,94.452,
0.0005,2.6501,-10.0007,94.176,
0.0004,2.7503,-10.0008,94.116,
0.0004,2.8502,-10.0008,93.812,
0.0004,2.9501,-10.0009,93.177,
0.0004,3.0503,-10.001,92.732,
0.0004,3.1502,-10.001,92.778,
0.0003,3.2501,-10.0011,92.001,
0.0003,3.3503,-10.0012,91.181,
0.0003,3.4502,-10.0012,91.528,
0.0005,3.5501,-10.0013,90.616,
0.0006,3.6503,-10.0014,89.954,
0.0006,3.7502,-10.0014,89.766,
0.0005,3.85,-10.0015,88.868,
0.0005,3.9501,-10.0016,88.556,
0.0005,4.0502,-10.0015,88.214,
0.0005,4.1502,-10.0014,87.077,
0.0005,4.2503,-10.0014,86.524,
0.0003,4.3504,-10.0013,85.592,
0.0002,4.4503,-10.0012,84.666,
0.0002,4.55,-10.0011,82.882,
0.0001,4.6501,-10.0011,81.308,
0.0001,4.7502,-10.001,79.264,
0.0001,4.8503,-10.0009,76.270,
0.0001,4.9504,-10.0009,72.053,
0.0003,5.0503,-10.0008,66.451,
0.0004,5.15,-10.0007,59.269,
0.0004,5.2501,-10.0007,51.509,
0.0004,5.3502,-10.0006,43.589,
0.0002,5.4503,-10.0005,36.028,
0.0001,5.5504,-10.0005,29.397,
0,5.6505,-10.0004,23.968,
0,5.7503,-10.0003,19.680,
0,5.85,-10.0003,16.552,
0,5.9495,-10.0002,14.137,

Checksum:,131B7650C2429AF1596DAD77D358D3B2E71C08A478E324F9E850CE5D95FF8A0C