HEADER
Header Length,87
Export file version,2.0


Export settings:
Normalise,Yes
For TPS,No
Smoothing level,None

Units:
length,[cm]
amperage,[pA]

Project:
Project,A28MR Field Detector SN XMC213190
Project run number,10
Project run note,

Irradiation unit:
Name,VCU MRIdian
Manufacturer,ViewRay
Model,MRIdian
Source-isocentre distance,90,[cm]

Thales:
Control unit UID,00-3B-00-43-4B-56-50-11-20-37-30-53
Electrometer UID,00-4E-00-36-58-4B-50-0D-20-34-34-41
Water phantom UID,4A-B3-52-04-00-00-00-0A

Field detector:
Serial number,XMC213190
Manufacturer,Standard Imaging
Model,A28MR Field
Bias voltage,-300,[V]

Reference detector:
Serial number,XMC213192
Manufacturer,Standard Imaging
Model,A28MR Ref
Bias voltage,-300,[V]

Zeroing offsets:
Field detector,-0.843,[pA]
Reference detector,-0.87,[pA]

Profile settings:
Measurement mode,Continuous
Creation time,2022-12-18T16:24:49.8123373-05:00
SSD,85,[cm]
Gantry angle,0,[°]
Field size crossline,27.2,[cm]
Field size inline,24.07,[cm]
Beam quality,6,[MV]
Flattening Filter,FFF
Time to wait prior to sampling,0,[s]

Profile:
Profile type,Inline
Profile status,Completed successfully
Start X,0,[cm]
Start Y,-14.5,[cm]
Start Z,-5,[cm]
Stop X,0,[cm]
Stop Y,14.5,[cm]
Stop Z,-5,[cm]
Couch tilt x,0.08,[°]
Couch tilt y,0.01,[°]

Region count,1

Region 1 Start,0,[µm]
Region 1 Stop,290000,[µm]
Step size,1000,[µm]
Speed,1050,[µm/s]
Integration time,953,[ms]

Analysis result:
Analysis method,Max value
Calculated centre,0.032284,[cm]
Calculated field width,23.776607,[cm]
Calculated penumbra left,5.195298,[cm]
Calculated penumbra right,5.116929,[cm]
Calculated symmetry,1.060,[%]
Normalisation factor,0.017207,


MEASUREMENT DATA

X [cm],Y [cm],Z [cm],Normalised dose [%],
-0.0011,-14.4506,-5.0072,4.972,
0.0035,-14.3497,-5.0143,5.096,
0.0075,-14.2497,-5.0142,5.250,
0.0077,-14.1497,-5.0141,5.383,
0.0078,-14.0497,-5.014,5.542,
0.008,-13.9497,-5.0139,5.664,
0.0081,-13.8497,-5.0138,5.835,
0.008,-13.7497,-5.0138,6.028,
0.0079,-13.6496,-5.0137,6.189,
0.0079,-13.5496,-5.0136,6.399,
0.0078,-13.4495,-5.0135,6.654,
0.0079,-13.3495,-5.0134,6.855,
0.008,-13.2495,-5.0134,7.151,
0.0077,-13.1495,-5.0133,7.411,
0.0075,-13.0495,-5.0132,7.782,
0.0074,-12.9495,-5.0131,8.226,
0.0074,-12.8495,-5.013,8.736,
0.0073,-12.7495,-5.0129,9.454,
0.0072,-12.6495,-5.0129,10.633,
0.0072,-12.5495,-5.0128,12.689,
0.0071,-12.4495,-5.0127,16.089,
0.0072,-12.3495,-5.0126,20.928,
0.0074,-12.2495,-5.0125,26.681,
0.0075,-12.1497,-5.0125,32.806,
0.0074,-12.05,-5.0124,39.219,
0.0075,-11.95,-5.0123,45.016,
0.0076,-11.85,-5.0122,50.319,
0.0075,-11.75,-5.0121,54.328,
0.0074,-11.6499,-5.012,57.347,
0.0074,-11.5499,-5.012,59.546,
0.0073,-11.4499,-5.0119,61.398,
0.007,-11.3499,-5.0118,62.725,
0.0069,-11.2499,-5.0117,63.678,
0.0068,-11.1499,-5.0116,64.550,
0.0067,-11.0499,-5.0115,64.900,
0.0067,-10.9499,-5.0115,65.512,
0.0066,-10.8499,-5.0114,66.119,
0.0066,-10.7499,-5.0113,66.742,
0.0067,-10.6499,-5.0112,67.019,
0.0067,-10.5499,-5.0111,67.788,
0.0066,-10.4499,-5.0111,67.970,
0.0065,-10.3498,-5.011,68.277,
0.0065,-10.2498,-5.0109,68.645,
0.0064,-10.1497,-5.0108,68.847,
0.0065,-10.0497,-5.0107,69.474,
0.0066,-9.9497,-5.0106,69.579,
0.0065,-9.8497,-5.0106,70.127,
0.0064,-9.7497,-5.0105,70.549,
0.0063,-9.6496,-5.0104,70.674,
0.0061,-9.5496,-5.0103,70.956,
0.0059,-9.4496,-5.0102,71.464,
0.0058,-9.3496,-5.0102,71.642,
0.0058,-9.2496,-5.0101,72.738,
0.0057,-9.1496,-5.01,72.651,
0.0056,-9.0496,-5.0099,73.088,
0.0054,-8.9496,-5.0098,73.529,
0.0052,-8.8495,-5.0097,74.163,
0.0051,-8.7495,-5.0097,74.267,
0.0048,-8.6495,-5.0096,74.636,
0.0047,-8.5495,-5.0095,74.747,
0.0046,-8.4495,-5.0094,75.423,
0.0047,-8.3495,-5.0093,75.633,
0.0048,-8.2495,-5.0093,76.365,
0.0047,-8.1495,-5.0092,76.186,
0.0046,-8.0495,-5.0091,76.651,
0.0045,-7.9495,-5.009,77.004,
0.0043,-7.8495,-5.0089,77.562,
0.0041,-7.7497,-5.0088,77.837,
0.0038,-7.65,-5.0088,78.016,
0.0036,-7.55,-5.0087,78.858,
0.0035,-7.45,-5.0086,78.928,
0.0034,-7.35,-5.0085,79.286,
0.0034,-7.2499,-5.0084,79.493,
0.0031,-7.1499,-5.0083,80.156,
0.0029,-7.0499,-5.0083,80.362,
0.0028,-6.9499,-5.0082,80.967,
0.0026,-6.8499,-5.0081,81.457,
0.0024,-6.7499,-5.008,81.275,
0.0023,-6.6499,-5.0079,81.990,
0.0023,-6.5499,-5.0079,81.996,
0.0022,-6.4499,-5.0078,82.562,
0.0021,-6.3499,-5.0077,82.949,
0.0021,-6.2499,-5.0076,83.474,
0.002,-6.1499,-5.0075,83.721,
0.002,-6.0499,-5.0074,84.090,
0.0021,-5.9499,-5.0074,84.414,
0.0021,-5.8498,-5.0073,85.323,
0.002,-5.7498,-5.0072,85.124,
0.0019,-5.6498,-5.0071,85.397,
0.0019,-5.5497,-5.007,85.783,
0.0018,-5.4497,-5.007,86.115,
0.0018,-5.3498,-5.007,86.334,
0.0017,-5.2499,-5.0071,86.413,
0.0017,-5.1497,-5.0071,87.140,
0.0017,-5.0498,-5.0071,87.576,
0.0017,-4.9499,-5.0071,87.790,
0.0016,-4.8498,-5.0072,88.170,
0.0016,-4.7496,-5.0072,88.450,
0.0016,-4.6497,-5.0072,89.607,
0.0013,-4.5498,-5.0073,89.193,
0.0012,-4.4499,-5.0073,89.646,
0.0012,-4.35,-5.0073,90.066,
0.0011,-4.2498,-5.0073,90.432,
0.0011,-4.1497,-5.0074,90.700,
0.0011,-4.0498,-5.0074,91.045,
0.0008,-3.9499,-5.0074,91.615,
0.0007,-3.8497,-5.0075,91.709,
0.0007,-3.7498,-5.0075,92.442,
0.0006,-3.6499,-5.0075,92.267,
0.0006,-3.5498,-5.0075,92.974,
0.0004,-3.4496,-5.0076,93.052,
0.0002,-3.3497,-5.0076,93.390,
0.0002,-3.2498,-5.0076,93.478,
0.0002,-3.1496,-5.0077,94.138,
0.0001,-3.0497,-5.0077,94.086,
0.0001,-2.9498,-5.0077,94.292,
0.0001,-2.8497,-5.0077,94.188,
0,-2.7498,-5.0078,94.727,
0.0002,-2.6499,-5.0078,95.119,
0.0003,-2.5497,-5.0078,96.114,
0.0004,-2.4498,-5.0079,96.272,
0.0005,-2.3499,-5.0079,96.196,
0.0005,-2.2497,-5.0079,96.770,
0.0006,-2.1496,-5.0079,96.764,
0.0007,-2.0497,-5.008,97.043,
0.0007,-1.9498,-5.008,97.181,
0.0007,-1.8496,-5.008,97.202,
0.0006,-1.7497,-5.0081,97.810,
0.0006,-1.6498,-5.0081,97.507,
0.0006,-1.5496,-5.0081,97.771,
0.0006,-1.4497,-5.0081,98.058,
0.0005,-1.3499,-5.0082,97.665,
0.0007,-1.2497,-5.0082,98.362,
0.0008,-1.1498,-5.0082,97.762,
0.0007,-1.0499,-5.0083,98.989,
0.0007,-0.9497,-5.0083,98.364,
0.0007,-0.8498,-5.0083,99.056,
0.0006,-0.7499,-5.0083,99.420,
0.0006,-0.6497,-5.0084,99.579,
0.0006,-0.5498,-5.0084,99.215,
0.0005,-0.4499,-5.0084,99.915,
0.0007,-0.3497,-5.0085,99.836,
0.0008,-0.2498,-5.0085,100.000,
0.0008,-0.15,-5.0085,99.692,
0.0007,-0.0498,-5.0085,99.496,
0.0007,0.0504,-5.0086,99.473,
0.0007,0.1503,-5.0086,99.514,
0.0007,0.2502,-5.0086,99.399,
0.0006,0.3504,-5.0087,99.523,
0.0006,0.4503,-5.0087,99.185,
0.0006,0.5501,-5.0087,99.392,
0.0005,0.6503,-5.0087,99.274,
0.0005,0.7502,-5.0088,99.224,
0.0005,0.8501,-5.0088,99.044,
0.0002,0.9503,-5.0088,99.241,
0.0001,1.0502,-5.0089,98.425,
0,1.1501,-5.0089,98.816,
0,1.2502,-5.0089,98.337,
0,1.3504,-5.0089,98.349,
-0.0001,1.4503,-5.009,98.520,
0.0001,1.5502,-5.009,98.337,
0.0002,1.6504,-5.009,98.337,
0.0002,1.7503,-5.0091,97.985,
0.0001,1.8501,-5.0091,97.762,
-0.0001,1.9503,-5.0091,97.635,
-0.0002,2.0502,-5.0091,97.100,
-0.0003,2.1501,-5.0092,97.172,
-0.0003,2.2503,-5.0092,96.736,
-0.0003,2.3502,-5.0092,96.653,
-0.0004,2.4501,-5.0093,96.216,
-0.0004,2.5502,-5.0093,96.072,
-0.0004,2.6504,-5.0093,95.551,
-0.0005,2.7503,-5.0093,95.016,
-0.0005,2.8502,-5.0094,95.425,
-0.0005,2.9504,-5.0094,95.148,
-0.0006,3.0503,-5.0094,94.674,
-0.0006,3.1502,-5.0095,94.797,
-0.0005,3.2503,-5.0095,93.691,
-0.0004,3.3502,-5.0095,93.987,
-0.0004,3.4501,-5.0095,93.031,
-0.0004,3.5503,-5.0096,93.337,
-0.0004,3.6502,-5.0096,92.760,
-0.0005,3.7501,-5.0096,92.734,
-0.0005,3.8503,-5.0097,92.235,
-0.0005,3.9504,-5.0097,91.844,
-0.0005,4.0503,-5.0096,91.833,
-0.0005,4.1504,-5.0095,91.288,
-0.0005,4.2504,-5.0094,91.101,
-0.0005,4.3505,-5.0094,90.486,
-0.0005,4.4505,-5.0093,89.987,
-0.0006,4.5503,-5.0092,89.889,
-0.0006,4.65,-5.0091,89.565,
-0.0006,4.75,-5.009,89.629,
-0.0006,4.85,-5.0089,89.030,
-0.0006,4.9501,-5.0089,88.644,
-0.0006,5.0501,-5.0088,88.127,
-0.0006,5.1501,-5.0087,87.789,
-0.0006,5.2501,-5.0086,87.384,
-0.0006,5.3502,-5.0085,87.057,
-0.0006,5.4502,-5.0084,86.654,
-0.0008,5.5503,-5.0084,86.295,
-0.0009,5.6504,-5.0083,85.710,
-0.0009,5.7504,-5.0082,85.474,
-0.0009,5.8504,-5.0081,85.371,
-0.0009,5.9505,-5.008,84.611,
-0.0009,6.0505,-5.0079,84.699,
-0.0009,6.1503,-5.0079,84.129,
-0.0009,6.25,-5.0078,84.104,
-0.0007,6.35,-5.0077,83.714,
-0.0006,6.45,-5.0076,83.017,
-0.0006,6.55,-5.0075,82.899,
-0.0006,6.6501,-5.0074,82.148,
-0.0006,6.7501,-5.0074,81.823,
-0.0006,6.8502,-5.0073,81.436,
-0.0006,6.9502,-5.0072,81.276,
-0.0006,7.0503,-5.0071,81.049,
-0.0006,7.1503,-5.007,80.712,
-0.0006,7.2504,-5.0069,80.559,
-0.0006,7.3504,-5.0068,79.872,
-0.0006,7.4504,-5.0068,79.564,
-0.0006,7.5504,-5.0067,78.904,
-0.0006,7.6505,-5.0066,78.746,
-0.0006,7.7505,-5.0065,78.195,
-0.0006,7.8503,-5.0064,77.865,
-0.0006,7.95,-5.0063,77.431,
-0.0006,8.05,-5.0063,77.107,
-0.0006,8.15,-5.0062,76.932,
-0.0006,8.2501,-5.0061,76.207,
-0.0006,8.3501,-5.006,76.316,
-0.0006,8.4502,-5.0059,75.691,
-0.0006,8.5503,-5.0058,75.463,
-0.0006,8.6503,-5.0058,74.905,
-0.0006,8.7504,-5.0057,74.485,
-0.0006,8.8502,-5.0056,74.276,
-0.0006,8.9502,-5.0055,73.886,
-0.0006,9.0505,-5.0054,73.257,
-0.0006,9.1503,-5.0053,73.364,
-0.0006,9.25,-5.0053,72.704,
-0.0006,9.35,-5.0052,72.270,
-0.0006,9.45,-5.0051,72.325,
-0.0006,9.5501,-5.005,71.976,
-0.0006,9.6501,-5.0049,71.424,
-0.0006,9.7502,-5.0048,70.608,
-0.0006,9.8502,-5.0048,70.558,
-0.0006,9.9503,-5.0047,70.149,
-0.0006,10.0503,-5.0046,69.957,
-0.0006,10.1503,-5.0045,69.425,
-0.0006,10.2504,-5.0044,69.212,
-0.0006,10.3504,-5.0043,68.625,
-0.0006,10.4502,-5.0043,68.195,
-0.0006,10.5502,-5.0042,67.765,
-0.0006,10.6505,-5.0041,67.389,
-0.0006,10.7503,-5.004,67.170,
-0.0006,10.85,-5.0039,66.449,
-0.0006,10.95,-5.0038,66.284,
-0.0006,11.05,-5.0038,65.653,
-0.0006,11.1501,-5.0037,65.114,
-0.0006,11.2502,-5.0036,64.542,
-0.0006,11.3502,-5.0035,63.996,
-0.0006,11.4502,-5.0034,63.132,
-0.0006,11.5503,-5.0033,61.941,
-0.0006,11.6503,-5.0033,60.510,
-0.0006,11.7503,-5.0032,57.832,
-0.0006,11.8504,-5.0031,53.615,
-0.0006,11.9504,-5.003,48.465,
-0.0006,12.0504,-5.0029,42.523,
-0.0006,12.1504,-5.0028,35.980,
-0.0006,12.2505,-5.0028,29.863,
-0.0006,12.3505,-5.0027,24.464,
-0.0006,12.4503,-5.0026,19.927,
-0.0006,12.55,-5.0025,16.332,
-0.0006,12.6501,-5.0024,13.655,
-0.0006,12.7501,-5.0023,11.753,
-0.0006,12.8502,-5.0023,10.368,
-0.0006,12.9502,-5.0022,9.322,
-0.0006,13.0502,-5.0021,8.593,
-0.0006,13.1503,-5.002,8.082,
-0.0006,13.2503,-5.0019,7.694,
-0.0006,13.3503,-5.0018,7.384,
-0.0007,13.4502,-5.0017,7.090,
-0.0008,13.5503,-5.0015,6.866,
-0.0007,13.6503,-5.0013,6.642,
-0.0006,13.7504,-5.0012,6.416,
-0.0005,13.8504,-5.001,6.209,
-0.0005,13.9504,-5.0009,6.025,
-0.0002,14.0505,-5.0007,5.911,
0,14.1503,-5.0006,5.722,
0.0001,14.25,-5.0004,5.589,
0.0002,14.35,-5.0002,5.446,
0.0003,14.4498,-5.0001,5.306,

Checksum:,781753DCBFA650280461CEC3367B093220B7BD493B0321837C868FC1FA643549