HEADER
Header Length,86
Export file version,2.0

Warning,Some of the samples in this profile were acquired more than 0.250 mm away from the intended location. Max. deviation per axis X=0.434 mm, Y=0.053 mm, Z=0.000 mm.

Export settings:
Normalise,Yes
For TPS,No
Smoothing level,None

Units:
length,[cm]
amperage,[pA]

Project:
Project,A1SL MR SN XMA170891
Project run number,1
Project run note,

Irradiation unit:
Name,VCU MRIdian
Manufacturer,ViewRay
Model,MRIdian
Source-isocentre distance,90,[cm]

Thales:
Control unit UID,00-3B-00-43-4B-56-50-11-20-37-30-53
Electrometer UID,00-4E-00-36-58-4B-50-0D-20-34-34-41
Water phantom UID,4A-B3-52-04-00-00-00-0A

Field detector:
Serial number,A1SL MR
Manufacturer,Standard Imaging
Model,A1SL MR
Bias voltage,-300,[V]

Reference detector:
Serial number,XMC213192
Manufacturer,Standard Imaging
Model,A28MR Ref
Bias voltage,-300,[V]

Zeroing offsets:
Field detector,-0.811,[pA]
Reference detector,-0.871,[pA]

Profile settings:
Measurement mode,Continuous
Creation time,2022-12-24T15:27:34.0319938-05:00
SSD,85,[cm]
Gantry angle,0,[°]
Field size crossline,3.32,[cm]
Field size inline,3.32,[cm]
Beam quality,6,[MV]
Flattening Filter,FFF
Time to wait prior to sampling,0,[s]

Profile:
Profile type,PDD
Profile status,Completed successfully
Start X,0,[cm]
Start Y,0,[cm]
Start Z,-12,[cm]
Stop X,0,[cm]
Stop Y,0,[cm]
Stop Z,0.1,[cm]
Couch tilt x,0.06,[°]
Couch tilt y,0.01,[°]

Region count,1

Region 1 Start,0,[µm]
Region 1 Stop,121000,[µm]
Step size,1000,[µm]
Speed,320,[µm/s]
Integration time,3125,[ms]

Analysis result:
Analysis method,PDD standard
Calculated D10,56.853,[%]
Calculated D20,N.C.,[%]
DMax,1.299967,[cm]
Normalisation factor,0.087631,


MEASUREMENT DATA

X [cm],Y [cm],Z [cm],Normalised dose [%],
0.0216,0.0026,-11.95,49.688,
0.0434,0.0053,-11.85,50.093,
0.0431,0.0053,-11.75,50.425,
0.0427,0.0053,-11.65,50.752,
0.0422,0.0053,-11.55,51.112,
0.0417,0.0052,-11.45,51.469,
0.0413,0.0052,-11.35,51.881,
0.0408,0.0052,-11.25,52.183,
0.0403,0.0052,-11.15,52.586,
0.0399,0.0052,-11.05,52.960,
0.0394,0.0051,-10.95,53.264,
0.0389,0.0051,-10.85,53.617,
0.0385,0.0051,-10.75,54.090,
0.038,0.0051,-10.65,54.441,
0.0375,0.0051,-10.55,54.846,
0.0371,0.005,-10.45,55.133,
0.0368,0.005,-10.35,55.530,
0.0364,0.005,-10.25,55.864,
0.036,0.0049,-10.15,56.310,
0.0357,0.0049,-10.05,56.628,
0.0355,0.0049,-9.95,57.078,
0.0353,0.0048,-9.85,57.408,
0.0349,0.0048,-9.75,57.879,
0.0346,0.0048,-9.65,58.253,
0.034,0.0047,-9.55,58.787,
0.0335,0.0047,-9.45,59.095,
0.0332,0.0047,-9.35,59.519,
0.0328,0.0046,-9.25,59.959,
0.0325,0.0046,-9.15,60.387,
0.0321,0.0046,-9.05,60.764,
0.0318,0.0045,-8.95,61.230,
0.0314,0.0045,-8.8501,61.522,
0.031,0.0045,-8.75,62.094,
0.0307,0.0044,-8.65,62.580,
0.0303,0.0044,-8.55,62.868,
0.03,0.0043,-8.45,63.353,
0.0296,0.0043,-8.35,63.817,
0.0292,0.0043,-8.25,64.122,
0.0289,0.0042,-8.15,64.768,
0.0285,0.0042,-8.05,65.079,
0.0282,0.0042,-7.95,65.596,
0.0278,0.0041,-7.85,65.999,
0.0275,0.0041,-7.75,66.428,
0.0271,0.0041,-7.65,66.971,
0.0267,0.004,-7.55,67.336,
0.0264,0.004,-7.45,67.812,
0.026,0.004,-7.35,68.306,
0.0257,0.0039,-7.25,68.724,
0.0253,0.0039,-7.15,69.343,
0.025,0.0039,-7.05,69.814,
0.0246,0.0038,-6.95,70.348,
0.0242,0.0038,-6.85,70.791,
0.0239,0.0038,-6.75,71.277,
0.0235,0.0037,-6.65,71.726,
0.0232,0.0037,-6.55,72.239,
0.0228,0.0037,-6.45,72.657,
0.0225,0.0036,-6.35,73.284,
0.0221,0.0036,-6.25,73.757,
0.0217,0.0036,-6.15,74.282,
0.0214,0.0035,-6.05,74.772,
0.021,0.0035,-5.95,75.152,
0.0207,0.0034,-5.85,75.776,
0.0203,0.0034,-5.7501,76.302,
0.02,0.0034,-5.65,76.942,
0.0196,0.0033,-5.55,77.594,
0.0192,0.0033,-5.45,77.965,
0.0189,0.0033,-5.35,78.486,
0.0185,0.0032,-5.25,79.090,
0.0182,0.0032,-5.15,79.478,
0.0178,0.0032,-5.05,80.107,
0.0175,0.0031,-4.95,80.604,
0.0171,0.0031,-4.85,81.198,
0.0167,0.0031,-4.75,81.668,
0.0164,0.003,-4.65,82.299,
0.016,0.003,-4.55,82.855,
0.0157,0.003,-4.45,83.435,
0.0153,0.0029,-4.35,83.878,
0.015,0.0028,-4.25,84.603,
0.0146,0.0028,-4.15,85.120,
0.0143,0.0027,-4.05,85.562,
0.0139,0.0026,-3.95,86.309,
0.0136,0.0026,-3.85,86.740,
0.0133,0.0025,-3.75,87.262,
0.0129,0.0024,-3.65,87.990,
0.0126,0.0024,-3.55,88.601,
0.0122,0.0023,-3.45,89.199,
0.0119,0.0023,-3.35,89.778,
0.0115,0.0022,-3.25,90.423,
0.0112,0.0021,-3.15,90.976,
0.0108,0.0021,-3.05,91.573,
0.0105,0.002,-2.95,92.092,
0.0101,0.0019,-2.85,92.759,
0.0098,0.0019,-2.75,93.386,
0.0095,0.0018,-2.65,93.898,
0.0091,0.0017,-2.55,94.464,
0.0088,0.0017,-2.45,95.027,
0.0084,0.0016,-2.35,95.570,
0.0081,0.0015,-2.25,96.391,
0.0077,0.0015,-2.15,96.680,
0.0074,0.0014,-2.05,97.303,
0.007,0.0014,-1.95,97.842,
0.0067,0.0013,-1.85,98.451,
0.0063,0.0012,-1.75,98.912,
0.006,0.0012,-1.65,99.251,
0.0057,0.0011,-1.55,99.590,
0.0053,0.001,-1.45,99.847,
0.005,0.001,-1.35,99.896,
0.0046,0.0009,-1.25,100.000,
0.0043,0.0008,-1.15,99.812,
0.0039,0.0008,-1.05,99.361,
0.0036,0.0007,-0.95,98.528,
0.0032,0.0006,-0.85,97.530,
0.0029,0.0006,-0.75,96.075,
0.0025,0.0005,-0.65,94.158,
0.0022,0.0005,-0.55,91.404,
0.0019,0.0004,-0.45,87.564,
0.0015,0.0003,-0.35,82.605,
0.0012,0.0003,-0.25,75.663,
0.0008,0.0002,-0.15,70.417,
0.0005,0.0001,-0.05,68.220,
0.0001,0.0001,0.05,67.182,

Checksum:,C3A3B25A920A2CF7905B7492EE01F3725AC94DB532844588EA2E1DC7BDD65452