HEADER
Header Length,86
Export file version,2.0

Warning,Some of the samples in this profile were acquired more than 0.250 mm away from the intended location. Max. deviation per axis X=0.434 mm, Y=0.053 mm, Z=0.000 mm.

Export settings:
Normalise,Yes
For TPS,No
Smoothing level,None

Units:
length,[cm]
amperage,[pA]

Project:
Project,A1SL MR SN XMA170891
Project run number,2
Project run note,

Irradiation unit:
Name,VCU MRIdian
Manufacturer,ViewRay
Model,MRIdian
Source-isocentre distance,90,[cm]

Thales:
Control unit UID,00-3B-00-43-4B-56-50-11-20-37-30-53
Electrometer UID,00-4E-00-36-58-4B-50-0D-20-34-34-41
Water phantom UID,4A-B3-52-04-00-00-00-0A

Field detector:
Serial number,A1SL MR
Manufacturer,Standard Imaging
Model,A1SL MR
Bias voltage,-300,[V]

Reference detector:
Serial number,XMC213192
Manufacturer,Standard Imaging
Model,A28MR Ref
Bias voltage,-300,[V]

Zeroing offsets:
Field detector,-0.816,[pA]
Reference detector,-0.873,[pA]

Profile settings:
Measurement mode,Continuous
Creation time,2022-12-24T17:03:07.1593323-05:00
SSD,85,[cm]
Gantry angle,0,[°]
Field size crossline,24.07,[cm]
Field size inline,24.07,[cm]
Beam quality,6,[MV]
Flattening Filter,FFF
Time to wait prior to sampling,0,[s]

Profile:
Profile type,PDD
Profile status,Completed successfully
Start X,0,[cm]
Start Y,0,[cm]
Start Z,-12,[cm]
Stop X,0,[cm]
Stop Y,0,[cm]
Stop Z,0.1,[cm]
Couch tilt x,0.06,[°]
Couch tilt y,0.01,[°]

Region count,1

Region 1 Start,0,[µm]
Region 1 Stop,121000,[µm]
Step size,1000,[µm]
Speed,320,[µm/s]
Integration time,3125,[ms]

Analysis result:
Analysis method,PDD standard
Calculated D10,65.832,[%]
Calculated D20,N.C.,[%]
DMax,1.449749,[cm]
Normalisation factor,0.079896,


MEASUREMENT DATA

X [cm],Y [cm],Z [cm],Normalised dose [%],
0.0216,0.0026,-11.95,59.067,
0.0434,0.0053,-11.85,59.495,
0.0431,0.0053,-11.75,59.728,
0.0427,0.0053,-11.65,60.238,
0.0422,0.0053,-11.55,60.388,
0.0417,0.0052,-11.45,60.807,
0.0413,0.0052,-11.35,61.043,
0.0408,0.0052,-11.25,61.523,
0.0403,0.0052,-11.15,61.801,
0.0399,0.0052,-11.05,62.105,
0.0394,0.0051,-10.95,62.534,
0.0389,0.0051,-10.85,62.936,
0.0385,0.0051,-10.75,63.153,
0.038,0.0051,-10.65,63.467,
0.0375,0.0051,-10.55,63.830,
0.0371,0.005,-10.45,64.207,
0.0368,0.005,-10.35,64.477,
0.0364,0.005,-10.25,64.885,
0.036,0.0049,-10.15,65.245,
0.0357,0.0049,-10.05,65.662,
0.0353,0.0049,-9.95,66.002,
0.035,0.0048,-9.85,66.289,
0.0346,0.0048,-9.75,66.664,
0.0343,0.0048,-9.65,66.980,
0.0339,0.0047,-9.55,67.338,
0.0335,0.0047,-9.45,67.713,
0.0332,0.0047,-9.35,68.156,
0.0328,0.0046,-9.25,68.474,
0.0325,0.0046,-9.15,68.803,
0.0321,0.0046,-9.05,69.182,
0.0318,0.0045,-8.95,69.599,
0.0314,0.0045,-8.8501,70.018,
0.031,0.0045,-8.75,70.339,
0.0307,0.0044,-8.65,70.795,
0.0303,0.0044,-8.55,71.354,
0.03,0.0043,-8.45,71.591,
0.0296,0.0043,-8.35,71.922,
0.0292,0.0043,-8.25,72.351,
0.0289,0.0042,-8.15,72.624,
0.0285,0.0042,-8.05,73.160,
0.0282,0.0042,-7.95,73.398,
0.0278,0.0041,-7.85,73.817,
0.0275,0.0041,-7.75,74.310,
0.0271,0.0041,-7.65,74.627,
0.0267,0.004,-7.55,75.055,
0.0264,0.004,-7.45,75.296,
0.026,0.004,-7.35,75.737,
0.0257,0.0039,-7.25,76.198,
0.0253,0.0039,-7.15,76.552,
0.025,0.0039,-7.05,77.031,
0.0246,0.0038,-6.95,77.311,
0.0242,0.0038,-6.85,77.787,
0.0239,0.0038,-6.75,78.202,
0.0235,0.0037,-6.65,78.545,
0.0232,0.0037,-6.55,79.114,
0.0228,0.0037,-6.45,79.409,
0.0225,0.0036,-6.35,79.737,
0.0221,0.0036,-6.25,80.206,
0.0217,0.0036,-6.15,80.741,
0.0214,0.0035,-6.05,81.201,
0.021,0.0035,-5.95,81.544,
0.0207,0.0034,-5.85,81.882,
0.0203,0.0034,-5.7501,82.415,
0.02,0.0034,-5.65,82.762,
0.0196,0.0033,-5.55,83.353,
0.0192,0.0033,-5.45,83.583,
0.0189,0.0033,-5.35,84.000,
0.0185,0.0032,-5.25,84.478,
0.0182,0.0032,-5.15,84.930,
0.0178,0.0032,-5.05,85.252,
0.0175,0.0031,-4.95,85.906,
0.0171,0.0031,-4.85,86.182,
0.0167,0.0031,-4.75,86.421,
0.0164,0.003,-4.65,87.023,
0.016,0.003,-4.55,87.439,
0.0157,0.003,-4.45,87.715,
0.0153,0.0029,-4.35,88.375,
0.015,0.0028,-4.25,88.650,
0.0146,0.0028,-4.15,89.006,
0.0143,0.0027,-4.05,89.512,
0.0139,0.0026,-3.95,89.996,
0.0136,0.0026,-3.85,90.396,
0.0133,0.0025,-3.75,90.814,
0.0129,0.0024,-3.65,91.325,
0.0126,0.0024,-3.55,91.840,
0.0122,0.0023,-3.45,92.056,
0.0119,0.0023,-3.35,92.609,
0.0115,0.0022,-3.25,93.053,
0.0112,0.0021,-3.15,93.681,
0.0108,0.0021,-3.05,93.813,
0.0105,0.002,-2.95,94.457,
0.0101,0.0019,-2.85,94.984,
0.0098,0.0019,-2.75,95.261,
0.0095,0.0018,-2.65,95.775,
0.0091,0.0017,-2.55,96.293,
0.0088,0.0017,-2.45,96.691,
0.0084,0.0016,-2.35,97.248,
0.0081,0.0015,-2.25,97.530,
0.0077,0.0015,-2.15,98.107,
0.0074,0.0014,-2.05,98.464,
0.007,0.0014,-1.95,98.739,
0.0067,0.0013,-1.85,99.177,
0.0063,0.0012,-1.75,99.297,
0.006,0.0012,-1.65,99.607,
0.0057,0.0011,-1.55,99.815,
0.0053,0.001,-1.45,99.917,
0.005,0.001,-1.35,100.000,
0.0046,0.0009,-1.25,99.516,
0.0043,0.0008,-1.15,99.491,
0.0039,0.0008,-1.05,98.762,
0.0036,0.0007,-0.95,97.881,
0.0032,0.0006,-0.85,96.713,
0.0029,0.0006,-0.75,94.863,
0.0025,0.0005,-0.65,92.683,
0.0022,0.0005,-0.55,89.788,
0.0019,0.0004,-0.45,85.633,
0.0015,0.0003,-0.35,80.214,
0.0012,0.0003,-0.25,73.563,
0.0008,0.0002,-0.15,70.013,
0.0005,0.0001,-0.05,68.469,
0.0001,0.0001,0.05,67.788,

Checksum:,0931B99ACE65AC70E367B1059581B09A9F85AEFE3E2FA2762AA24FF33DFA77E3