HEADER
Header Length,86
Export file version,2.0

Warning,Some of the samples in this profile were acquired more than 0.250 mm away from the intended location. Max. deviation per axis X=0.434 mm, Y=0.053 mm, Z=0.000 mm.

Export settings:
Normalise,Yes
For TPS,No
Smoothing level,None

Units:
length,[cm]
amperage,[pA]

Project:
Project,A1SL MR SN XMA170891
Project run number,1
Project run note,

Irradiation unit:
Name,VCU MRIdian
Manufacturer,ViewRay
Model,MRIdian
Source-isocentre distance,90,[cm]

Thales:
Control unit UID,00-3B-00-43-4B-56-50-11-20-37-30-53
Electrometer UID,00-4E-00-36-58-4B-50-0D-20-34-34-41
Water phantom UID,4A-B3-52-04-00-00-00-0A

Field detector:
Serial number,A1SL MR
Manufacturer,Standard Imaging
Model,A1SL MR
Bias voltage,-300,[V]

Reference detector:
Serial number,XMC213192
Manufacturer,Standard Imaging
Model,A28MR Ref
Bias voltage,-300,[V]

Zeroing offsets:
Field detector,-0.811,[pA]
Reference detector,-0.871,[pA]

Profile settings:
Measurement mode,Continuous
Creation time,2022-12-24T15:07:20.0812729-05:00
SSD,85,[cm]
Gantry angle,0,[°]
Field size crossline,1.66,[cm]
Field size inline,1.66,[cm]
Beam quality,6,[MV]
Flattening Filter,FFF
Time to wait prior to sampling,0,[s]

Profile:
Profile type,PDD
Profile status,Completed successfully
Start X,0,[cm]
Start Y,0,[cm]
Start Z,-12,[cm]
Stop X,0,[cm]
Stop Y,0,[cm]
Stop Z,0.1,[cm]
Couch tilt x,0.06,[°]
Couch tilt y,0.01,[°]

Region count,1

Region 1 Start,0,[µm]
Region 1 Stop,121000,[µm]
Step size,1000,[µm]
Speed,320,[µm/s]
Integration time,3125,[ms]

Analysis result:
Analysis method,PDD standard
Calculated D10,54.462,[%]
Calculated D20,N.C.,[%]
DMax,1.232343,[cm]
Normalisation factor,0.092864,


MEASUREMENT DATA

X [cm],Y [cm],Z [cm],Normalised dose [%],
0.0211,0.0024,-11.95,47.497,
0.0434,0.0053,-11.85,47.826,
0.0431,0.0053,-11.75,48.117,
0.0427,0.0053,-11.65,48.521,
0.0422,0.0053,-11.55,48.759,
0.0417,0.0052,-11.45,49.143,
0.0413,0.0052,-11.35,49.462,
0.0408,0.0052,-11.25,49.865,
0.0403,0.0052,-11.15,50.173,
0.0399,0.0052,-11.05,50.564,
0.0394,0.0051,-10.95,50.870,
0.0389,0.0051,-10.85,51.307,
0.0385,0.0051,-10.75,51.668,
0.038,0.0051,-10.65,51.927,
0.0375,0.0051,-10.55,52.429,
0.0371,0.005,-10.45,52.738,
0.0368,0.005,-10.35,53.064,
0.0364,0.005,-10.25,53.477,
0.036,0.0049,-10.15,53.901,
0.0357,0.0049,-10.05,54.260,
0.0353,0.0049,-9.95,54.664,
0.035,0.0048,-9.85,54.996,
0.0346,0.0048,-9.75,55.425,
0.0343,0.0048,-9.65,55.759,
0.0339,0.0047,-9.55,56.159,
0.0335,0.0047,-9.45,56.660,
0.0332,0.0047,-9.35,57.133,
0.0328,0.0046,-9.25,57.464,
0.0325,0.0046,-9.15,57.820,
0.0321,0.0046,-9.05,58.187,
0.0318,0.0045,-8.95,58.682,
0.0314,0.0045,-8.8501,59.141,
0.031,0.0045,-8.75,59.536,
0.0307,0.0044,-8.65,59.990,
0.0303,0.0044,-8.55,60.336,
0.03,0.0043,-8.45,60.842,
0.0296,0.0043,-8.35,61.197,
0.0292,0.0043,-8.25,61.675,
0.0289,0.0042,-8.15,62.049,
0.0285,0.0042,-8.05,62.577,
0.0282,0.0042,-7.95,62.992,
0.0278,0.0041,-7.85,63.438,
0.0275,0.0041,-7.75,63.863,
0.0271,0.0041,-7.65,64.364,
0.0267,0.004,-7.55,64.800,
0.0264,0.004,-7.45,65.297,
0.026,0.004,-7.35,65.665,
0.0257,0.0039,-7.25,66.294,
0.0253,0.0039,-7.15,66.733,
0.025,0.0039,-7.05,67.113,
0.0246,0.0038,-6.95,67.820,
0.0242,0.0038,-6.85,68.184,
0.0239,0.0038,-6.75,68.715,
0.0235,0.0037,-6.65,69.157,
0.0232,0.0037,-6.55,69.589,
0.0228,0.0037,-6.45,70.174,
0.0225,0.0036,-6.35,70.743,
0.0221,0.0036,-6.25,71.252,
0.0217,0.0036,-6.15,71.768,
0.0214,0.0035,-6.05,72.316,
0.021,0.0035,-5.95,72.732,
0.0207,0.0034,-5.85,73.297,
0.0203,0.0034,-5.7501,73.806,
0.02,0.0034,-5.65,74.360,
0.0196,0.0033,-5.55,74.884,
0.0192,0.0033,-5.45,75.484,
0.0189,0.0033,-5.35,75.949,
0.0185,0.0032,-5.25,76.551,
0.0182,0.0032,-5.15,77.040,
0.0178,0.0032,-5.05,77.553,
0.0175,0.0031,-4.95,78.189,
0.0171,0.0031,-4.85,78.849,
0.0167,0.0031,-4.75,79.256,
0.0164,0.003,-4.65,79.940,
0.016,0.003,-4.55,80.444,
0.0157,0.003,-4.45,81.056,
0.0153,0.0029,-4.35,81.697,
0.015,0.0028,-4.25,82.286,
0.0146,0.0028,-4.15,82.803,
0.0143,0.0027,-4.05,83.464,
0.0139,0.0026,-3.95,84.240,
0.0136,0.0026,-3.85,84.576,
0.0133,0.0025,-3.75,85.139,
0.0129,0.0024,-3.65,85.988,
0.0126,0.0024,-3.55,86.614,
0.0122,0.0023,-3.45,87.050,
0.0119,0.0023,-3.35,87.697,
0.0115,0.0022,-3.25,88.334,
0.0112,0.0021,-3.15,89.009,
0.0108,0.0021,-3.05,89.643,
0.0105,0.002,-2.95,90.365,
0.0101,0.0019,-2.85,90.961,
0.0098,0.0019,-2.75,91.500,
0.0095,0.0018,-2.65,92.048,
0.0091,0.0017,-2.55,92.956,
0.0088,0.0017,-2.45,93.696,
0.0084,0.0016,-2.35,94.164,
0.0081,0.0015,-2.25,94.915,
0.0077,0.0015,-2.15,95.466,
0.0074,0.0014,-2.05,96.171,
0.007,0.0014,-1.95,96.878,
0.0067,0.0013,-1.85,97.330,
0.0063,0.0012,-1.75,98.042,
0.006,0.0012,-1.65,98.650,
0.0057,0.0011,-1.55,99.087,
0.0053,0.001,-1.45,99.553,
0.005,0.001,-1.35,99.866,
0.0046,0.0009,-1.25,100.000,
0.0043,0.0008,-1.15,99.916,
0.0039,0.0008,-1.05,99.691,
0.0036,0.0007,-0.95,99.224,
0.0032,0.0006,-0.85,98.390,
0.0029,0.0006,-0.75,97.343,
0.0025,0.0005,-0.65,95.660,
0.0022,0.0005,-0.55,93.139,
0.0019,0.0004,-0.45,89.614,
0.0015,0.0003,-0.35,84.670,
0.0012,0.0003,-0.25,77.863,
0.0008,0.0002,-0.15,72.264,
0.0005,0.0001,-0.05,70.070,
0.0001,0.0001,0.05,68.931,

Checksum:,072AF122C36C0A0A116A06C916205A444AEFF473156B5A23D5675D2A237FF803